* Fit function: E_MeV = k * E_CH + h, then E_CH = 1/k * E_MeV - h/k 
* 1,2,3 represent using alpha peak1,peak2, and peak3 to calibrate the energy,respectively. 
* SSDNum  CHNum      k1        h1          k2           h2          k3          h3       k11=1./k1  h11=-h1/k1   k22=1./k2  h22=-h2/k2   k33=1./k3  h33=-h3/k3
    0       0    0.115387    -10.2838    0.113705    -10.1339    0.112717    -10.0458     8.66647      89.124     8.79466      89.124     8.87177      89.124
    0       1    0.114279    -9.22473    0.112648    -9.09303    0.111366    -8.98959     8.75048     80.7208     8.87722     80.7208     8.97937     80.7208
    0       2    0.113657    -8.23262    0.112246    -8.13041    0.111208     -8.0552     8.79837     72.4336     8.90898     72.4336     8.99215     72.4336
    0       3    0.114128    -12.3187    0.112774    -12.1725    0.111561    -12.0416      8.7621     107.937     8.86732     107.937     8.96367     107.937
    0       4      0.1146    -7.65782    0.113127    -7.55938    0.112152    -7.49422     8.72597     66.8219      8.8396     66.8219     8.91645     66.8219
    0       5    0.111257    -10.9517    0.109999    -10.8278    0.109258     -10.755     8.98821     98.4361     9.09103     98.4361     9.15263     98.4361
    0       6    0.113041    -11.8775    0.111487    -11.7143    0.110467    -11.6071     8.84639     105.073     8.96963     105.073     9.05245     105.073
    0       7    0.111481    -10.2937    0.110172    -10.1728    0.109321    -10.0943      8.9701     92.3357     9.07669     92.3357     9.14735     92.3357
    0       8    0.115053    -9.09226    0.113492    -8.96889    0.112448    -8.88644     8.69167     79.0269     8.81122     79.0269     8.89298     79.0269
    0       9    0.113517    -8.40129    0.112045    -8.29237    0.110958    -8.21192     8.80926     74.0091     8.92496     74.0091     9.01239     74.0091
    0      10    0.113875    -10.6932    0.112571    -10.5708    0.111526    -10.4727      8.7816     93.9034     8.88327     93.9034      8.9665     93.9034
    0      11    0.112518    -7.50739    0.111022    -7.40753    0.110252    -7.35619     8.88744     66.7215     9.00726     66.7215     9.07012     66.7215
    0      12    0.112144    -11.0009    0.110678     -10.857    0.109788    -10.7697     8.91709     98.0957     9.03523     98.0957      9.1085     98.0957
    0      13    0.113273     -10.651    0.111618    -10.4953    0.110701    -10.4091     8.82821     94.0289     8.95911     94.0289     9.03333     94.0289
    0      14    0.113948    -10.0011     0.11237    -9.86255    0.111386    -9.77621     8.77593     87.7688      8.8992     87.7688      8.9778     87.7688
    0      15    0.112776    -11.0934    0.111341    -10.9522    0.110867    -10.9055     8.86712     98.3661     8.98139     98.3661     9.01985     98.3661
    1       0   0.0805612    -4.77418   0.0799276    -4.73663   0.0794626    -4.70907     12.4129     59.2615     12.5113     59.2615     12.5845     59.2615
    1       1   0.0787744    -6.10881   0.0781401    -6.05962   0.0776977    -6.02531     12.6945     77.5481     12.7975     77.5481     12.8704     77.5481
    1       2   0.0771609    -4.84316   0.0765454    -4.80453   0.0761359    -4.77882     12.9599      62.767     13.0641      62.767     13.1344      62.767
    1       3   0.0779758    -5.72593   0.0773092    -5.67698   0.0770197    -5.65572     12.8245     73.4322     12.9351     73.4322     12.9837     73.4322
    1       4    0.077572    -6.44087   0.0770007    -6.39343   0.0766171    -6.36159     12.8912     83.0308     12.9869     83.0308     13.0519     83.0308
    1       5   0.0786303    -4.72547   0.0780704    -4.69182    0.077772    -4.67389     12.7177     60.0973      12.809     60.0973     12.8581     60.0973
    1       6   0.0784891    -6.86535   0.0778281    -6.80754    0.077555    -6.78365     12.7406     87.4689     12.8488     87.4689     12.8941     87.4689
    1       7   0.0784925      -6.598    0.077873    -6.54591   0.0776632    -6.52829     12.7401     84.0589     12.8414     84.0589     12.8761     84.0589
    1       8   0.0765211    -5.64968   0.0759214     -5.6054   0.0755133    -5.57527     13.0683     73.8316     13.1715     73.8316     13.2427     73.8316
    1       9    0.077783     -6.6822   0.0771695    -6.62949   0.0767642    -6.59467     12.8563     85.9082     12.9585     85.9082     13.0269     85.9082
    1      10    0.077997    -6.20171   0.0772659    -6.14358   0.0770048    -6.12282      12.821     79.5122     12.9423     79.5122     12.9862     79.5122
    1      11   0.0756641    -5.60368   0.0750996    -5.56187   0.0748363    -5.54237     13.2163     74.0599     13.3156     74.0599     13.3625     74.0599
    1      12   0.0768357    -5.28408   0.0763368    -5.24976   0.0760913    -5.23288     13.0148     68.7711     13.0998     68.7711     13.1421     68.7711
    1      13   0.0776392    -6.42493    0.077003    -6.37228   0.0765464    -6.33449     12.8801     82.7536     12.9865     82.7536      13.064     82.7536
    1      14    0.077733    -5.15929   0.0770691    -5.11523   0.0766838    -5.08965     12.8646     66.3719     12.9754     66.3719     13.0406     66.3719
    1      15   0.0798113    -5.19829   0.0790628    -5.14954   0.0784419     -5.1091     12.5295     65.1322     12.6482     65.1322     12.7483     65.1322
    2       0   0.0300954    -2.07936   0.0297768    -2.05735   0.0294959    -2.03794     33.2276     69.0923     33.5832     69.0923      33.903     69.0923
    2       1   0.0292725    -2.04409   0.0289797    -2.02364   0.0288017    -2.01121     34.1617     69.8296     34.5069     69.8296     34.7202     69.8296
    2       2   0.0294294    -2.06861   0.0291191    -2.04679   0.0288826    -2.03017     33.9796     70.2905     34.3417     70.2905     34.6229     70.2905
    2       3   0.0294292    -2.23163   0.0291351    -2.20932    0.028897    -2.19127     33.9799     75.8304     34.3229     75.8304     34.6057     75.8304
    2       4   0.0296709    -2.30136   0.0293291    -2.27485   0.0290439    -2.25273      33.703      77.563     34.0958      77.563     34.4306      77.563
    2       5   0.0298913    -2.61133   0.0295712    -2.58336    0.029359    -2.56483     33.4545     87.3607     33.8167     87.3607     34.0611     87.3607
    2       6   0.0291499    -2.52715   0.0288556    -2.50163   0.0286473    -2.48357     34.3054     86.6949     34.6553     86.6949     34.9073     86.6949
    2       7   0.0294789    -2.84648   0.0291721    -2.81686   0.0289659    -2.79695     33.9226     96.5602     34.2793     96.5602     34.5234     96.5602
    2       8   0.0299272    -2.30719    0.029586    -2.28088   0.0293242     -2.2607     33.4144     77.0934     33.7998     77.0934     34.1015     77.0934
    2       9   0.0298635    -2.20071   0.0295397    -2.17685   0.0293647    -2.16396     33.4857     73.6925     33.8528     73.6925     34.0545     73.6925
    2      10    0.029726    -2.84069   0.0293987     -2.8094    0.029176    -2.78813     33.6406     95.5623     34.0152     95.5623     34.2747     95.5623
    2      11   0.0292143    -2.32227   0.0289031    -2.29753   0.0286576    -2.27802     34.2298     79.4909     34.5984     79.4909     34.8948     79.4909
    2      12   0.0298131    -2.62633   0.0294917    -2.59801   0.0292547    -2.57714     33.5423     88.0932     33.9079     88.0932     34.1825     88.0932
    2      13   0.0291403    -2.36693   0.0288232    -2.34117   0.0286488    -2.32701     34.3167     81.2253     34.6943     81.2253     34.9054     81.2253
    2      14   0.0295759    -2.84992   0.0293122    -2.82451   0.0291436    -2.80826     33.8114     96.3597     34.1155     96.3597     34.3129     96.3597
    2      15    0.028946    -2.02502   0.0286907    -2.00716   0.0285044    -1.99413     34.5471     69.9587     34.8545     69.9587     35.0824     69.9587
    3       0  -0.0438898     4.90407   -0.046965     5.24768  -0.0498628     5.57147    -22.7843     111.736    -21.2924     111.736     -20.055     111.736
    3       1   0.0207679    -1.56315   0.0207129    -1.55901   0.0206486    -1.55417     48.1513     75.2676     48.2791     75.2676     48.4295     75.2676
    3       2   0.0199528    -1.65341   0.0198893    -1.64815   0.0198362    -1.64375     50.1184     82.8661     50.2782     82.8661     50.4129     82.8661
    3       3   0.0207542    -1.62441   0.0207074    -1.62075   0.0206359    -1.61515      48.183     78.2692      48.292     78.2692     48.4594     78.2692
    3       4   0.0207133    -1.91546   0.0206593    -1.91047    0.020595    -1.90453     48.2783      92.475     48.4042      92.475     48.5554      92.475
    3       5     0.02036     -1.5094   0.0203152    -1.50608    0.020242    -1.50066      49.116     74.1358     49.2243     74.1358     49.4023     74.1358
    3       6   0.0197649    -1.51013   0.0196935    -1.50468   0.0196502    -1.50137     50.5948     76.4047     50.7781     76.4047       50.89     76.4047
    3       7   0.0203823    -1.57487   0.0203192    -1.56999   0.0202555    -1.56507     49.0622     77.2664     49.2146     77.2664     49.3693     77.2664
    3       8   0.0200983    -1.47116   0.0200464    -1.46736   0.0199847    -1.46284     49.7554     73.1981     49.8843     73.1981     50.0383     73.1981
    3       9   0.0209105    -1.45139   0.0208436    -1.44675   0.0207815    -1.44244      47.823     69.4099     47.9765     69.4099     48.1198     69.4099
    3      10    0.020636    -2.02522   0.0205865    -2.02035   0.0205314    -2.01495      48.459     98.1399     48.5756     98.1399     48.7058     98.1399
    3      11   0.0211836    -1.61986   0.0211053    -1.61387   0.0210358    -1.60857     47.2063     76.4679     47.3815     76.4679     47.5379     76.4679
    3      12   0.0199471    -1.99478   0.0198694    -1.98701    0.019805    -1.98057     50.1326     100.003     50.3287     100.003     50.4922     100.003
    3      13   0.0205547    -1.59109   0.0205061    -1.58732   0.0204669    -1.58429     48.6506     77.4073     48.7661     77.4073     48.8594     77.4073
    3      14   0.0208705    -1.61551   0.0207919    -1.60942   0.0207503     -1.6062     47.9146     77.4063     48.0957     77.4063     48.1921     77.4063
    3      15   0.0209818    -1.52472   0.0209019    -1.51891   0.0208473    -1.51494     47.6603     72.6685     47.8426     72.6685     47.9679     72.6685
